#  E (eV)   dos(E)     Int dos(E) EFermi =  10.429 eV
   5.000  0.1661E+02  0.1661E+00
   5.010  0.1703E+02  0.3364E+00
   5.020  0.1744E+02  0.5108E+00
   5.030  0.1785E+02  0.6893E+00
   5.040  0.1825E+02  0.8718E+00
   5.050  0.1864E+02  0.1058E+01
   5.060  0.1902E+02  0.1248E+01
   5.070  0.1938E+02  0.1442E+01
   5.080  0.1973E+02  0.1639E+01
   5.090  0.2007E+02  0.1840E+01
   5.100  0.2038E+02  0.2044E+01
   5.110  0.2068E+02  0.2251E+01
   5.120  0.2097E+02  0.2460E+01
   5.130  0.2123E+02  0.2673E+01
   5.140  0.2147E+02  0.2887E+01
   5.150  0.2169E+02  0.3104E+01
   5.160  0.2189E+02  0.3323E+01
   5.170  0.2207E+02  0.3544E+01
   5.180  0.2223E+02  0.3766E+01
   5.190  0.2237E+02  0.3990E+01
   5.200  0.2249E+02  0.4215E+01
   5.210  0.2259E+02  0.4441E+01
   5.220  0.2267E+02  0.4667E+01
   5.230  0.2273E+02  0.4895E+01
   5.240  0.2278E+02  0.5122E+01
   5.250  0.2281E+02  0.5351E+01
   5.260  0.2283E+02  0.5579E+01
   5.270  0.2284E+02  0.5807E+01
   5.280  0.2283E+02  0.6036E+01
   5.290  0.2282E+02  0.6264E+01
   5.300  0.2280E+02  0.6492E+01
   5.310  0.2278E+02  0.6720E+01
   5.320  0.2275E+02  0.6947E+01
   5.330  0.2272E+02  0.7174E+01
   5.340  0.2269E+02  0.7401E+01
   5.350  0.2266E+02  0.7628E+01
   5.360  0.2263E+02  0.7854E+01
   5.370  0.2260E+02  0.8080E+01
   5.380  0.2259E+02  0.8306E+01
   5.390  0.2257E+02  0.8532E+01
   5.400  0.2257E+02  0.8757E+01
   5.410  0.2257E+02  0.8983E+01
   5.420  0.2259E+02  0.9209E+01
   5.430  0.2261E+02  0.9435E+01
   5.440  0.2264E+02  0.9661E+01
   5.450  0.2269E+02  0.9888E+01
   5.460  0.2274E+02  0.1012E+02
   5.470  0.2281E+02  0.1034E+02
   5.480  0.2289E+02  0.1057E+02
   5.490  0.2298E+02  0.1080E+02
   5.500  0.2308E+02  0.1103E+02
   5.510  0.2319E+02  0.1127E+02
   5.520  0.2331E+02  0.1150E+02
   5.530  0.2344E+02  0.1173E+02
   5.540  0.2358E+02  0.1197E+02
   5.550  0.2372E+02  0.1221E+02
   5.560  0.2387E+02  0.1244E+02
   5.570  0.2403E+02  0.1268E+02
   5.580  0.2419E+02  0.1293E+02
   5.590  0.2435E+02  0.1317E+02
   5.600  0.2451E+02  0.1342E+02
   5.610  0.2467E+02  0.1366E+02
   5.620  0.2483E+02  0.1391E+02
   5.630  0.2498E+02  0.1416E+02
   5.640  0.2513E+02  0.1441E+02
   5.650  0.2527E+02  0.1466E+02
   5.660  0.2540E+02  0.1492E+02
   5.670  0.2552E+02  0.1517E+02
   5.680  0.2563E+02  0.1543E+02
   5.690  0.2572E+02  0.1569E+02
   5.700  0.2579E+02  0.1594E+02
   5.710  0.2585E+02  0.1620E+02
   5.720  0.2589E+02  0.1646E+02
   5.730  0.2591E+02  0.1672E+02
   5.740  0.2591E+02  0.1698E+02
   5.750  0.2589E+02  0.1724E+02
   5.760  0.2584E+02  0.1750E+02
   5.770  0.2577E+02  0.1776E+02
   5.780  0.2567E+02  0.1801E+02
   5.790  0.2555E+02  0.1827E+02
   5.800  0.2539E+02  0.1852E+02
   5.810  0.2522E+02  0.1877E+02
   5.820  0.2501E+02  0.1902E+02
   5.830  0.2478E+02  0.1927E+02
   5.840  0.2453E+02  0.1952E+02
   5.850  0.2425E+02  0.1976E+02
   5.860  0.2394E+02  0.2000E+02
   5.870  0.2361E+02  0.2023E+02
   5.880  0.2326E+02  0.2047E+02
   5.890  0.2288E+02  0.2070E+02
   5.900  0.2249E+02  0.2092E+02
   5.910  0.2207E+02  0.2114E+02
   5.920  0.2164E+02  0.2136E+02
   5.930  0.2120E+02  0.2157E+02
   5.940  0.2074E+02  0.2178E+02
   5.950  0.2027E+02  0.2198E+02
   5.960  0.1979E+02  0.2218E+02
   5.970  0.1930E+02  0.2237E+02
   5.980  0.1880E+02  0.2256E+02
   5.990  0.1831E+02  0.2274E+02
   6.000  0.1781E+02  0.2292E+02
   6.010  0.1731E+02  0.2309E+02
   6.020  0.1681E+02  0.2326E+02
   6.030  0.1632E+02  0.2342E+02
   6.040  0.1584E+02  0.2358E+02
   6.050  0.1536E+02  0.2374E+02
   6.060  0.1489E+02  0.2389E+02
   6.070  0.1443E+02  0.2403E+02
   6.080  0.1398E+02  0.2417E+02
   6.090  0.1354E+02  0.2431E+02
   6.100  0.1312E+02  0.2444E+02
   6.110  0.1271E+02  0.2456E+02
   6.120  0.1231E+02  0.2469E+02
   6.130  0.1193E+02  0.2481E+02
   6.140  0.1157E+02  0.2492E+02
   6.150  0.1122E+02  0.2503E+02
   6.160  0.1089E+02  0.2514E+02
   6.170  0.1058E+02  0.2525E+02
   6.180  0.1028E+02  0.2535E+02
   6.190  0.9993E+01  0.2545E+02
   6.200  0.9725E+01  0.2555E+02
   6.210  0.9472E+01  0.2564E+02
   6.220  0.9234E+01  0.2574E+02
   6.230  0.9011E+01  0.2583E+02
   6.240  0.8801E+01  0.2591E+02
   6.250  0.8604E+01  0.2600E+02
   6.260  0.8420E+01  0.2608E+02
   6.270  0.8247E+01  0.2617E+02
   6.280  0.8087E+01  0.2625E+02
   6.290  0.7937E+01  0.2633E+02
   6.300  0.7797E+01  0.2640E+02
   6.310  0.7667E+01  0.2648E+02
   6.320  0.7545E+01  0.2656E+02
   6.330  0.7432E+01  0.2663E+02
   6.340  0.7327E+01  0.2670E+02
   6.350  0.7229E+01  0.2678E+02
   6.360  0.7137E+01  0.2685E+02
   6.370  0.7052E+01  0.2692E+02
   6.380  0.6972E+01  0.2699E+02
   6.390  0.6898E+01  0.2706E+02
   6.400  0.6828E+01  0.2713E+02
   6.410  0.6763E+01  0.2719E+02
   6.420  0.6703E+01  0.2726E+02
   6.430  0.6646E+01  0.2733E+02
   6.440  0.6592E+01  0.2739E+02
   6.450  0.6542E+01  0.2746E+02
   6.460  0.6495E+01  0.2752E+02
   6.470  0.6451E+01  0.2759E+02
   6.480  0.6409E+01  0.2765E+02
   6.490  0.6370E+01  0.2772E+02
   6.500  0.6333E+01  0.2778E+02
   6.510  0.6299E+01  0.2784E+02
   6.520  0.6266E+01  0.2790E+02
   6.530  0.6235E+01  0.2797E+02
   6.540  0.6207E+01  0.2803E+02
   6.550  0.6179E+01  0.2809E+02
   6.560  0.6154E+01  0.2815E+02
   6.570  0.6130E+01  0.2821E+02
   6.580  0.6108E+01  0.2827E+02
   6.590  0.6087E+01  0.2833E+02
   6.600  0.6068E+01  0.2840E+02
   6.610  0.6050E+01  0.2846E+02
   6.620  0.6033E+01  0.2852E+02
   6.630  0.6018E+01  0.2858E+02
   6.640  0.6003E+01  0.2864E+02
   6.650  0.5990E+01  0.2870E+02
   6.660  0.5978E+01  0.2876E+02
   6.670  0.5968E+01  0.2882E+02
   6.680  0.5958E+01  0.2888E+02
   6.690  0.5949E+01  0.2894E+02
   6.700  0.5942E+01  0.2899E+02
   6.710  0.5935E+01  0.2905E+02
   6.720  0.5929E+01  0.2911E+02
   6.730  0.5925E+01  0.2917E+02
   6.740  0.5921E+01  0.2923E+02
   6.750  0.5918E+01  0.2929E+02
   6.760  0.5916E+01  0.2935E+02
   6.770  0.5915E+01  0.2941E+02
   6.780  0.5914E+01  0.2947E+02
   6.790  0.5915E+01  0.2953E+02
   6.800  0.5917E+01  0.2959E+02
   6.810  0.5920E+01  0.2965E+02
   6.820  0.5924E+01  0.2971E+02
   6.830  0.5929E+01  0.2976E+02
   6.840  0.5935E+01  0.2982E+02
   6.850  0.5943E+01  0.2988E+02
   6.860  0.5952E+01  0.2994E+02
   6.870  0.5963E+01  0.3000E+02
   6.880  0.5976E+01  0.3006E+02
   6.890  0.5991E+01  0.3012E+02
   6.900  0.6008E+01  0.3018E+02
   6.910  0.6028E+01  0.3024E+02
   6.920  0.6050E+01  0.3030E+02
   6.930  0.6075E+01  0.3036E+02
   6.940  0.6104E+01  0.3042E+02
   6.950  0.6135E+01  0.3049E+02
   6.960  0.6171E+01  0.3055E+02
   6.970  0.6210E+01  0.3061E+02
   6.980  0.6254E+01  0.3067E+02
   6.990  0.6302E+01  0.3074E+02
   7.000  0.6355E+01  0.3080E+02
   7.010  0.6414E+01  0.3086E+02
   7.020  0.6477E+01  0.3093E+02
   7.030  0.6547E+01  0.3099E+02
   7.040  0.6622E+01  0.3106E+02
   7.050  0.6704E+01  0.3113E+02
   7.060  0.6792E+01  0.3119E+02
   7.070  0.6887E+01  0.3126E+02
   7.080  0.6989E+01  0.3133E+02
   7.090  0.7098E+01  0.3140E+02
   7.100  0.7214E+01  0.3148E+02
   7.110  0.7337E+01  0.3155E+02
   7.120  0.7468E+01  0.3162E+02
   7.130  0.7607E+01  0.3170E+02
   7.140  0.7753E+01  0.3178E+02
   7.150  0.7907E+01  0.3186E+02
   7.160  0.8068E+01  0.3194E+02
   7.170  0.8236E+01  0.3202E+02
   7.180  0.8412E+01  0.3210E+02
   7.190  0.8596E+01  0.3219E+02
   7.200  0.8786E+01  0.3228E+02
   7.210  0.8983E+01  0.3237E+02
   7.220  0.9187E+01  0.3246E+02
   7.230  0.9398E+01  0.3255E+02
   7.240  0.9614E+01  0.3265E+02
   7.250  0.9837E+01  0.3275E+02
   7.260  0.1006E+02  0.3285E+02
   7.270  0.1030E+02  0.3295E+02
   7.280  0.1054E+02  0.3306E+02
   7.290  0.1078E+02  0.3316E+02
   7.300  0.1103E+02  0.3328E+02
   7.310  0.1128E+02  0.3339E+02
   7.320  0.1153E+02  0.3350E+02
   7.330  0.1179E+02  0.3362E+02
   7.340  0.1205E+02  0.3374E+02
   7.350  0.1231E+02  0.3386E+02
   7.360  0.1258E+02  0.3399E+02
   7.370  0.1284E+02  0.3412E+02
   7.380  0.1311E+02  0.3425E+02
   7.390  0.1338E+02  0.3438E+02
   7.400  0.1365E+02  0.3452E+02
   7.410  0.1392E+02  0.3466E+02
   7.420  0.1419E+02  0.3480E+02
   7.430  0.1446E+02  0.3495E+02
   7.440  0.1472E+02  0.3509E+02
   7.450  0.1499E+02  0.3524E+02
   7.460  0.1525E+02  0.3540E+02
   7.470  0.1552E+02  0.3555E+02
   7.480  0.1578E+02  0.3571E+02
   7.490  0.1603E+02  0.3587E+02
   7.500  0.1629E+02  0.3603E+02
   7.510  0.1654E+02  0.3620E+02
   7.520  0.1679E+02  0.3637E+02
   7.530  0.1703E+02  0.3654E+02
   7.540  0.1727E+02  0.3671E+02
   7.550  0.1751E+02  0.3688E+02
   7.560  0.1774E+02  0.3706E+02
   7.570  0.1796E+02  0.3724E+02
   7.580  0.1818E+02  0.3742E+02
   7.590  0.1839E+02  0.3761E+02
   7.600  0.1860E+02  0.3779E+02
   7.610  0.1880E+02  0.3798E+02
   7.620  0.1899E+02  0.3817E+02
   7.630  0.1917E+02  0.3836E+02
   7.640  0.1935E+02  0.3856E+02
   7.650  0.1952E+02  0.3875E+02
   7.660  0.1968E+02  0.3895E+02
   7.670  0.1983E+02  0.3915E+02
   7.680  0.1997E+02  0.3935E+02
   7.690  0.2010E+02  0.3955E+02
   7.700  0.2023E+02  0.3975E+02
   7.710  0.2034E+02  0.3995E+02
   7.720  0.2045E+02  0.4016E+02
   7.730  0.2055E+02  0.4036E+02
   7.740  0.2063E+02  0.4057E+02
   7.750  0.2071E+02  0.4078E+02
   7.760  0.2078E+02  0.4098E+02
   7.770  0.2084E+02  0.4119E+02
   7.780  0.2090E+02  0.4140E+02
   7.790  0.2094E+02  0.4161E+02
   7.800  0.2098E+02  0.4182E+02
   7.810  0.2102E+02  0.4203E+02
   7.820  0.2104E+02  0.4224E+02
   7.830  0.2107E+02  0.4245E+02
   7.840  0.2109E+02  0.4266E+02
   7.850  0.2110E+02  0.4287E+02
   7.860  0.2112E+02  0.4308E+02
   7.870  0.2114E+02  0.4330E+02
   7.880  0.2115E+02  0.4351E+02
   7.890  0.2117E+02  0.4372E+02
   7.900  0.2119E+02  0.4393E+02
   7.910  0.2122E+02  0.4414E+02
   7.920  0.2126E+02  0.4436E+02
   7.930  0.2130E+02  0.4457E+02
   7.940  0.2135E+02  0.4478E+02
   7.950  0.2141E+02  0.4500E+02
   7.960  0.2148E+02  0.4521E+02
   7.970  0.2156E+02  0.4543E+02
   7.980  0.2166E+02  0.4564E+02
   7.990  0.2178E+02  0.4586E+02
   8.000  0.2191E+02  0.4608E+02
   8.010  0.2205E+02  0.4630E+02
   8.020  0.2222E+02  0.4652E+02
   8.030  0.2240E+02  0.4675E+02
   8.040  0.2260E+02  0.4697E+02
   8.050  0.2283E+02  0.4720E+02
   8.060  0.2307E+02  0.4743E+02
   8.070  0.2333E+02  0.4766E+02
   8.080  0.2361E+02  0.4790E+02
   8.090  0.2391E+02  0.4814E+02
   8.100  0.2423E+02  0.4838E+02
   8.110  0.2457E+02  0.4863E+02
   8.120  0.2492E+02  0.4888E+02
   8.130  0.2529E+02  0.4913E+02
   8.140  0.2568E+02  0.4939E+02
   8.150  0.2608E+02  0.4965E+02
   8.160  0.2649E+02  0.4991E+02
   8.170  0.2691E+02  0.5018E+02
   8.180  0.2734E+02  0.5046E+02
   8.190  0.2778E+02  0.5073E+02
   8.200  0.2822E+02  0.5102E+02
   8.210  0.2866E+02  0.5130E+02
   8.220  0.2910E+02  0.5159E+02
   8.230  0.2954E+02  0.5189E+02
   8.240  0.2997E+02  0.5219E+02
   8.250  0.3040E+02  0.5249E+02
   8.260  0.3082E+02  0.5280E+02
   8.270  0.3123E+02  0.5311E+02
   8.280  0.3163E+02  0.5343E+02
   8.290  0.3201E+02  0.5375E+02
   8.300  0.3237E+02  0.5407E+02
   8.310  0.3272E+02  0.5440E+02
   8.320  0.3305E+02  0.5473E+02
   8.330  0.3336E+02  0.5506E+02
   8.340  0.3364E+02  0.5540E+02
   8.350  0.3390E+02  0.5574E+02
   8.360  0.3414E+02  0.5608E+02
   8.370  0.3436E+02  0.5642E+02
   8.380  0.3456E+02  0.5677E+02
   8.390  0.3473E+02  0.5712E+02
   8.400  0.3487E+02  0.5747E+02
   8.410  0.3500E+02  0.5782E+02
   8.420  0.3510E+02  0.5817E+02
   8.430  0.3519E+02  0.5852E+02
   8.440  0.3525E+02  0.5887E+02
   8.450  0.3530E+02  0.5922E+02
   8.460  0.3533E+02  0.5958E+02
   8.470  0.3534E+02  0.5993E+02
   8.480  0.3534E+02  0.6028E+02
   8.490  0.3533E+02  0.6064E+02
   8.500  0.3530E+02  0.6099E+02
   8.510  0.3527E+02  0.6134E+02
   8.520  0.3523E+02  0.6170E+02
   8.530  0.3518E+02  0.6205E+02
   8.540  0.3513E+02  0.6240E+02
   8.550  0.3508E+02  0.6275E+02
   8.560  0.3503E+02  0.6310E+02
   8.570  0.3497E+02  0.6345E+02
   8.580  0.3491E+02  0.6380E+02
   8.590  0.3486E+02  0.6415E+02
   8.600  0.3481E+02  0.6450E+02
   8.610  0.3475E+02  0.6484E+02
   8.620  0.3470E+02  0.6519E+02
   8.630  0.3465E+02  0.6554E+02
   8.640  0.3461E+02  0.6588E+02
   8.650  0.3456E+02  0.6623E+02
   8.660  0.3451E+02  0.6657E+02
   8.670  0.3446E+02  0.6692E+02
   8.680  0.3441E+02  0.6726E+02
   8.690  0.3436E+02  0.6761E+02
   8.700  0.3430E+02  0.6795E+02
   8.710  0.3423E+02  0.6829E+02
   8.720  0.3416E+02  0.6863E+02
   8.730  0.3407E+02  0.6897E+02
   8.740  0.3397E+02  0.6931E+02
   8.750  0.3386E+02  0.6965E+02
   8.760  0.3373E+02  0.6999E+02
   8.770  0.3359E+02  0.7032E+02
   8.780  0.3342E+02  0.7066E+02
   8.790  0.3323E+02  0.7099E+02
   8.800  0.3302E+02  0.7132E+02
   8.810  0.3278E+02  0.7165E+02
   8.820  0.3252E+02  0.7197E+02
   8.830  0.3223E+02  0.7230E+02
   8.840  0.3191E+02  0.7262E+02
   8.850  0.3156E+02  0.7293E+02
   8.860  0.3118E+02  0.7324E+02
   8.870  0.3077E+02  0.7355E+02
   8.880  0.3033E+02  0.7385E+02
   8.890  0.2985E+02  0.7415E+02
   8.900  0.2935E+02  0.7445E+02
   8.910  0.2882E+02  0.7473E+02
   8.920  0.2826E+02  0.7502E+02
   8.930  0.2767E+02  0.7529E+02
   8.940  0.2705E+02  0.7556E+02
   8.950  0.2641E+02  0.7583E+02
   8.960  0.2575E+02  0.7609E+02
   8.970  0.2507E+02  0.7634E+02
   8.980  0.2436E+02  0.7658E+02
   8.990  0.2364E+02  0.7682E+02
   9.000  0.2291E+02  0.7705E+02
   9.010  0.2216E+02  0.7727E+02
   9.020  0.2141E+02  0.7748E+02
   9.030  0.2065E+02  0.7769E+02
   9.040  0.1988E+02  0.7789E+02
   9.050  0.1911E+02  0.7808E+02
   9.060  0.1835E+02  0.7826E+02
   9.070  0.1759E+02  0.7844E+02
   9.080  0.1684E+02  0.7861E+02
   9.090  0.1609E+02  0.7877E+02
   9.100  0.1536E+02  0.7892E+02
   9.110  0.1464E+02  0.7907E+02
   9.120  0.1394E+02  0.7921E+02
   9.130  0.1326E+02  0.7934E+02
   9.140  0.1260E+02  0.7946E+02
   9.150  0.1196E+02  0.7958E+02
   9.160  0.1134E+02  0.7970E+02
   9.170  0.1075E+02  0.7980E+02
   9.180  0.1019E+02  0.7991E+02
   9.190  0.9658E+01  0.8000E+02
   9.200  0.9154E+01  0.8009E+02
   9.210  0.8681E+01  0.8018E+02
   9.220  0.8238E+01  0.8026E+02
   9.230  0.7827E+01  0.8034E+02
   9.240  0.7449E+01  0.8042E+02
   9.250  0.7104E+01  0.8049E+02
   9.260  0.6792E+01  0.8056E+02
   9.270  0.6513E+01  0.8062E+02
   9.280  0.6268E+01  0.8068E+02
   9.290  0.6057E+01  0.8074E+02
   9.300  0.5879E+01  0.8080E+02
   9.310  0.5734E+01  0.8086E+02
   9.320  0.5623E+01  0.8092E+02
   9.330  0.5545E+01  0.8097E+02
   9.340  0.5500E+01  0.8103E+02
   9.350  0.5486E+01  0.8108E+02
   9.360  0.5505E+01  0.8114E+02
   9.370  0.5556E+01  0.8119E+02
   9.380  0.5637E+01  0.8125E+02
   9.390  0.5748E+01  0.8131E+02
   9.400  0.5890E+01  0.8137E+02
   9.410  0.6060E+01  0.8143E+02
   9.420  0.6259E+01  0.8149E+02
   9.430  0.6485E+01  0.8155E+02
   9.440  0.6737E+01  0.8162E+02
   9.450  0.7015E+01  0.8169E+02
   9.460  0.7317E+01  0.8176E+02
   9.470  0.7643E+01  0.8184E+02
   9.480  0.7991E+01  0.8192E+02
   9.490  0.8359E+01  0.8200E+02
   9.500  0.8747E+01  0.8209E+02
   9.510  0.9153E+01  0.8218E+02
   9.520  0.9575E+01  0.8228E+02
   9.530  0.1001E+02  0.8238E+02
   9.540  0.1046E+02  0.8248E+02
   9.550  0.1092E+02  0.8259E+02
   9.560  0.1139E+02  0.8271E+02
   9.570  0.1187E+02  0.8283E+02
   9.580  0.1236E+02  0.8295E+02
   9.590  0.1284E+02  0.8308E+02
   9.600  0.1333E+02  0.8321E+02
   9.610  0.1382E+02  0.8335E+02
   9.620  0.1431E+02  0.8349E+02
   9.630  0.1479E+02  0.8364E+02
   9.640  0.1527E+02  0.8379E+02
   9.650  0.1574E+02  0.8395E+02
   9.660  0.1620E+02  0.8411E+02
   9.670  0.1665E+02  0.8428E+02
   9.680  0.1709E+02  0.8445E+02
   9.690  0.1751E+02  0.8462E+02
   9.700  0.1791E+02  0.8480E+02
   9.710  0.1830E+02  0.8499E+02
   9.720  0.1867E+02  0.8517E+02
   9.730  0.1903E+02  0.8536E+02
   9.740  0.1936E+02  0.8556E+02
   9.750  0.1967E+02  0.8575E+02
   9.760  0.1996E+02  0.8595E+02
   9.770  0.2023E+02  0.8616E+02
   9.780  0.2048E+02  0.8636E+02
   9.790  0.2071E+02  0.8657E+02
   9.800  0.2091E+02  0.8678E+02
   9.810  0.2110E+02  0.8699E+02
   9.820  0.2126E+02  0.8720E+02
   9.830  0.2140E+02  0.8741E+02
   9.840  0.2152E+02  0.8763E+02
   9.850  0.2162E+02  0.8785E+02
   9.860  0.2170E+02  0.8806E+02
   9.870  0.2176E+02  0.8828E+02
   9.880  0.2181E+02  0.8850E+02
   9.890  0.2183E+02  0.8872E+02
   9.900  0.2184E+02  0.8894E+02
   9.910  0.2184E+02  0.8915E+02
   9.920  0.2182E+02  0.8937E+02
   9.930  0.2179E+02  0.8959E+02
   9.940  0.2174E+02  0.8981E+02
   9.950  0.2169E+02  0.9002E+02
   9.960  0.2162E+02  0.9024E+02
   9.970  0.2154E+02  0.9046E+02
   9.980  0.2145E+02  0.9067E+02
   9.990  0.2136E+02  0.9088E+02
  10.000  0.2125E+02  0.9110E+02
  10.010  0.2114E+02  0.9131E+02
  10.020  0.2102E+02  0.9152E+02
  10.030  0.2090E+02  0.9173E+02
  10.040  0.2077E+02  0.9193E+02
  10.050  0.2063E+02  0.9214E+02
  10.060  0.2049E+02  0.9235E+02
  10.070  0.2035E+02  0.9255E+02
  10.080  0.2020E+02  0.9275E+02
  10.090  0.2004E+02  0.9295E+02
  10.100  0.1989E+02  0.9315E+02
  10.110  0.1973E+02  0.9335E+02
  10.120  0.1956E+02  0.9354E+02
  10.130  0.1940E+02  0.9374E+02
  10.140  0.1923E+02  0.9393E+02
  10.150  0.1906E+02  0.9412E+02
  10.160  0.1888E+02  0.9431E+02
  10.170  0.1871E+02  0.9450E+02
  10.180  0.1853E+02  0.9468E+02
  10.190  0.1835E+02  0.9486E+02
  10.200  0.1817E+02  0.9505E+02
  10.210  0.1798E+02  0.9523E+02
  10.220  0.1779E+02  0.9540E+02
  10.230  0.1761E+02  0.9558E+02
  10.240  0.1742E+02  0.9575E+02
  10.250  0.1723E+02  0.9593E+02
  10.260  0.1703E+02  0.9610E+02
  10.270  0.1684E+02  0.9627E+02
  10.280  0.1665E+02  0.9643E+02
  10.290  0.1645E+02  0.9660E+02
  10.300  0.1626E+02  0.9676E+02
  10.310  0.1606E+02  0.9692E+02
  10.320  0.1586E+02  0.9708E+02
  10.330  0.1567E+02  0.9724E+02
  10.340  0.1547E+02  0.9739E+02
  10.350  0.1528E+02  0.9754E+02
  10.360  0.1508E+02  0.9769E+02
  10.370  0.1489E+02  0.9784E+02
  10.380  0.1469E+02  0.9799E+02
  10.390  0.1450E+02  0.9813E+02
  10.400  0.1431E+02  0.9828E+02
  10.410  0.1412E+02  0.9842E+02
  10.420  0.1392E+02  0.9856E+02
  10.430  0.1373E+02  0.9869E+02
  10.440  0.1354E+02  0.9883E+02
  10.450  0.1335E+02  0.9896E+02
  10.460  0.1316E+02  0.9910E+02
  10.470  0.1298E+02  0.9923E+02
  10.480  0.1279E+02  0.9935E+02
  10.490  0.1260E+02  0.9948E+02
  10.500  0.1241E+02  0.9960E+02
  10.510  0.1222E+02  0.9973E+02
  10.520  0.1202E+02  0.9985E+02
  10.530  0.1183E+02  0.9996E+02
  10.540  0.1163E+02  0.1001E+03
  10.550  0.1144E+02  0.1002E+03
  10.560  0.1124E+02  0.1003E+03
  10.570  0.1104E+02  0.1004E+03
  10.580  0.1083E+02  0.1005E+03
  10.590  0.1062E+02  0.1006E+03
  10.600  0.1041E+02  0.1007E+03
  10.610  0.1019E+02  0.1008E+03
  10.620  0.9975E+01  0.1009E+03
  10.630  0.9752E+01  0.1010E+03
  10.640  0.9526E+01  0.1011E+03
  10.650  0.9295E+01  0.1012E+03
  10.660  0.9061E+01  0.1013E+03
  10.670  0.8824E+01  0.1014E+03
  10.680  0.8583E+01  0.1015E+03
  10.690  0.8339E+01  0.1016E+03
  10.700  0.8092E+01  0.1017E+03
  10.710  0.7843E+01  0.1017E+03
  10.720  0.7592E+01  0.1018E+03
  10.730  0.7339E+01  0.1019E+03
  10.740  0.7086E+01  0.1020E+03
  10.750  0.6832E+01  0.1020E+03
  10.760  0.6579E+01  0.1021E+03
  10.770  0.6327E+01  0.1021E+03
  10.780  0.6077E+01  0.1022E+03
  10.790  0.5829E+01  0.1023E+03
  10.800  0.5585E+01  0.1023E+03
  10.810  0.5345E+01  0.1024E+03
  10.820  0.5109E+01  0.1024E+03
  10.830  0.4879E+01  0.1025E+03
  10.840  0.4656E+01  0.1025E+03
  10.850  0.4439E+01  0.1026E+03
  10.860  0.4230E+01  0.1026E+03
  10.870  0.4030E+01  0.1027E+03
  10.880  0.3838E+01  0.1027E+03
  10.890  0.3657E+01  0.1027E+03
  10.900  0.3485E+01  0.1028E+03
  10.910  0.3323E+01  0.1028E+03
  10.920  0.3173E+01  0.1028E+03
  10.930  0.3034E+01  0.1029E+03
  10.940  0.2906E+01  0.1029E+03
  10.950  0.2790E+01  0.1029E+03
  10.960  0.2686E+01  0.1029E+03
  10.970  0.2593E+01  0.1030E+03
  10.980  0.2512E+01  0.1030E+03
  10.990  0.2443E+01  0.1030E+03
  11.000  0.2386E+01  0.1030E+03
  11.010  0.2339E+01  0.1031E+03
  11.020  0.2304E+01  0.1031E+03
  11.030  0.2279E+01  0.1031E+03
  11.040  0.2264E+01  0.1031E+03
  11.050  0.2260E+01  0.1032E+03
  11.060  0.2264E+01  0.1032E+03
  11.070  0.2276E+01  0.1032E+03
  11.080  0.2297E+01  0.1032E+03
  11.090  0.2325E+01  0.1032E+03
  11.100  0.2360E+01  0.1033E+03
  11.110  0.2400E+01  0.1033E+03
  11.120  0.2446E+01  0.1033E+03
  11.130  0.2496E+01  0.1033E+03
  11.140  0.2549E+01  0.1034E+03
  11.150  0.2606E+01  0.1034E+03
  11.160  0.2665E+01  0.1034E+03
  11.170  0.2725E+01  0.1034E+03
  11.180  0.2787E+01  0.1035E+03
  11.190  0.2848E+01  0.1035E+03
  11.200  0.2909E+01  0.1035E+03
  11.210  0.2969E+01  0.1036E+03
  11.220  0.3027E+01  0.1036E+03
  11.230  0.3082E+01  0.1036E+03
  11.240  0.3135E+01  0.1037E+03
  11.250  0.3185E+01  0.1037E+03
  11.260  0.3231E+01  0.1037E+03
  11.270  0.3274E+01  0.1038E+03
  11.280  0.3312E+01  0.1038E+03
  11.290  0.3346E+01  0.1038E+03
  11.300  0.3375E+01  0.1039E+03
  11.310  0.3399E+01  0.1039E+03
  11.320  0.3419E+01  0.1039E+03
  11.330  0.3433E+01  0.1040E+03
  11.340  0.3443E+01  0.1040E+03
  11.350  0.3449E+01  0.1040E+03
  11.360  0.3449E+01  0.1041E+03
  11.370  0.3445E+01  0.1041E+03
  11.380  0.3437E+01  0.1041E+03
  11.390  0.3425E+01  0.1042E+03
  11.400  0.3409E+01  0.1042E+03
  11.410  0.3390E+01  0.1042E+03
  11.420  0.3367E+01  0.1043E+03
  11.430  0.3341E+01  0.1043E+03
  11.440  0.3313E+01  0.1043E+03
  11.450  0.3283E+01  0.1044E+03
  11.460  0.3250E+01  0.1044E+03
  11.470  0.3216E+01  0.1044E+03
  11.480  0.3181E+01  0.1045E+03
  11.490  0.3145E+01  0.1045E+03
  11.500  0.3109E+01  0.1045E+03
  11.510  0.3072E+01  0.1046E+03
  11.520  0.3036E+01  0.1046E+03
  11.530  0.3000E+01  0.1046E+03
  11.540  0.2965E+01  0.1046E+03
  11.550  0.2931E+01  0.1047E+03
  11.560  0.2898E+01  0.1047E+03
  11.570  0.2867E+01  0.1047E+03
  11.580  0.2838E+01  0.1048E+03
  11.590  0.2811E+01  0.1048E+03
  11.600  0.2787E+01  0.1048E+03
  11.610  0.2764E+01  0.1048E+03
  11.620  0.2745E+01  0.1049E+03
  11.630  0.2728E+01  0.1049E+03
  11.640  0.2714E+01  0.1049E+03
  11.650  0.2704E+01  0.1049E+03
  11.660  0.2696E+01  0.1050E+03
  11.670  0.2692E+01  0.1050E+03
  11.680  0.2691E+01  0.1050E+03
  11.690  0.2694E+01  0.1051E+03
  11.700  0.2700E+01  0.1051E+03
  11.710  0.2709E+01  0.1051E+03
  11.720  0.2722E+01  0.1051E+03
  11.730  0.2738E+01  0.1052E+03
  11.740  0.2757E+01  0.1052E+03
  11.750  0.2780E+01  0.1052E+03
  11.760  0.2806E+01  0.1052E+03
  11.770  0.2835E+01  0.1053E+03
  11.780  0.2866E+01  0.1053E+03
  11.790  0.2901E+01  0.1053E+03
  11.800  0.2939E+01  0.1054E+03
  11.810  0.2979E+01  0.1054E+03
  11.820  0.3021E+01  0.1054E+03
  11.830  0.3066E+01  0.1055E+03
  11.840  0.3112E+01  0.1055E+03
  11.850  0.3161E+01  0.1055E+03
  11.860  0.3211E+01  0.1056E+03
  11.870  0.3262E+01  0.1056E+03
  11.880  0.3315E+01  0.1056E+03
  11.890  0.3369E+01  0.1056E+03
  11.900  0.3423E+01  0.1057E+03
  11.910  0.3478E+01  0.1057E+03
  11.920  0.3533E+01  0.1058E+03
  11.930  0.3587E+01  0.1058E+03
  11.940  0.3642E+01  0.1058E+03
  11.950  0.3696E+01  0.1059E+03
  11.960  0.3750E+01  0.1059E+03
  11.970  0.3803E+01  0.1059E+03
  11.980  0.3854E+01  0.1060E+03
  11.990  0.3904E+01  0.1060E+03
  12.000  0.3953E+01  0.1061E+03
  12.010  0.4000E+01  0.1061E+03
  12.020  0.4046E+01  0.1061E+03
  12.030  0.4089E+01  0.1062E+03
  12.040  0.4130E+01  0.1062E+03
  12.050  0.4169E+01  0.1063E+03
  12.060  0.4205E+01  0.1063E+03
  12.070  0.4239E+01  0.1063E+03
  12.080  0.4271E+01  0.1064E+03
  12.090  0.4300E+01  0.1064E+03
  12.100  0.4326E+01  0.1065E+03
  12.110  0.4349E+01  0.1065E+03
  12.120  0.4370E+01  0.1066E+03
  12.130  0.4389E+01  0.1066E+03
  12.140  0.4404E+01  0.1066E+03
  12.150  0.4417E+01  0.1067E+03
  12.160  0.4428E+01  0.1067E+03
  12.170  0.4436E+01  0.1068E+03
  12.180  0.4442E+01  0.1068E+03
  12.190  0.4445E+01  0.1069E+03
  12.200  0.4446E+01  0.1069E+03
  12.210  0.4445E+01  0.1070E+03
  12.220  0.4443E+01  0.1070E+03
  12.230  0.4438E+01  0.1070E+03
  12.240  0.4432E+01  0.1071E+03
  12.250  0.4425E+01  0.1071E+03
  12.260  0.4416E+01  0.1072E+03
  12.270  0.4407E+01  0.1072E+03
  12.280  0.4396E+01  0.1073E+03
  12.290  0.4385E+01  0.1073E+03
  12.300  0.4373E+01  0.1074E+03
  12.310  0.4361E+01  0.1074E+03
  12.320  0.4349E+01  0.1074E+03
  12.330  0.4337E+01  0.1075E+03
  12.340  0.4325E+01  0.1075E+03
  12.350  0.4314E+01  0.1076E+03
  12.360  0.4303E+01  0.1076E+03
  12.370  0.4294E+01  0.1077E+03
  12.380  0.4286E+01  0.1077E+03
  12.390  0.4279E+01  0.1077E+03
  12.400  0.4273E+01  0.1078E+03
  12.410  0.4270E+01  0.1078E+03
  12.420  0.4268E+01  0.1079E+03
  12.430  0.4269E+01  0.1079E+03
  12.440  0.4271E+01  0.1080E+03
  12.450  0.4277E+01  0.1080E+03
  12.460  0.4285E+01  0.1080E+03
  12.470  0.4296E+01  0.1081E+03
  12.480  0.4309E+01  0.1081E+03
  12.490  0.4326E+01  0.1082E+03
  12.500  0.4347E+01  0.1082E+03
  12.510  0.4371E+01  0.1083E+03
  12.520  0.4398E+01  0.1083E+03
  12.530  0.4429E+01  0.1083E+03
  12.540  0.4464E+01  0.1084E+03
  12.550  0.4503E+01  0.1084E+03
  12.560  0.4546E+01  0.1085E+03
  12.570  0.4593E+01  0.1085E+03
  12.580  0.4644E+01  0.1086E+03
  12.590  0.4699E+01  0.1086E+03
  12.600  0.4758E+01  0.1087E+03
  12.610  0.4821E+01  0.1087E+03
  12.620  0.4889E+01  0.1088E+03
  12.630  0.4960E+01  0.1088E+03
  12.640  0.5035E+01  0.1089E+03
  12.650  0.5114E+01  0.1089E+03
  12.660  0.5196E+01  0.1090E+03
  12.670  0.5282E+01  0.1090E+03
  12.680  0.5372E+01  0.1091E+03
  12.690  0.5464E+01  0.1091E+03
  12.700  0.5559E+01  0.1092E+03
  12.710  0.5657E+01  0.1092E+03
  12.720  0.5757E+01  0.1093E+03
  12.730  0.5859E+01  0.1094E+03
  12.740  0.5963E+01  0.1094E+03
  12.750  0.6067E+01  0.1095E+03
  12.760  0.6173E+01  0.1095E+03
  12.770  0.6279E+01  0.1096E+03
  12.780  0.6386E+01  0.1097E+03
  12.790  0.6492E+01  0.1097E+03
  12.800  0.6597E+01  0.1098E+03
  12.810  0.6702E+01  0.1099E+03
  12.820  0.6804E+01  0.1099E+03
  12.830  0.6905E+01  0.1100E+03
  12.840  0.7004E+01  0.1101E+03
  12.850  0.7099E+01  0.1101E+03
  12.860  0.7192E+01  0.1102E+03
  12.870  0.7281E+01  0.1103E+03
  12.880  0.7366E+01  0.1104E+03
  12.890  0.7447E+01  0.1104E+03
  12.900  0.7524E+01  0.1105E+03
  12.910  0.7596E+01  0.1106E+03
  12.920  0.7663E+01  0.1107E+03
  12.930  0.7724E+01  0.1107E+03
  12.940  0.7781E+01  0.1108E+03
  12.950  0.7832E+01  0.1109E+03
  12.960  0.7877E+01  0.1110E+03
  12.970  0.7917E+01  0.1111E+03
  12.980  0.7951E+01  0.1111E+03
  12.990  0.7980E+01  0.1112E+03
  13.000  0.8003E+01  0.1113E+03
  13.010  0.8021E+01  0.1114E+03
  13.020  0.8033E+01  0.1115E+03
  13.030  0.8040E+01  0.1115E+03
  13.040  0.8042E+01  0.1116E+03
  13.050  0.8040E+01  0.1117E+03
  13.060  0.8033E+01  0.1118E+03
  13.070  0.8021E+01  0.1119E+03
  13.080  0.8005E+01  0.1119E+03
  13.090  0.7986E+01  0.1120E+03
  13.100  0.7963E+01  0.1121E+03
  13.110  0.7937E+01  0.1122E+03
  13.120  0.7908E+01  0.1123E+03
  13.130  0.7875E+01  0.1123E+03
  13.140  0.7841E+01  0.1124E+03
  13.150  0.7804E+01  0.1125E+03
  13.160  0.7764E+01  0.1126E+03
  13.170  0.7723E+01  0.1126E+03
  13.180  0.7680E+01  0.1127E+03
  13.190  0.7635E+01  0.1128E+03
  13.200  0.7589E+01  0.1129E+03
  13.210  0.7541E+01  0.1130E+03
  13.220  0.7491E+01  0.1130E+03
  13.230  0.7440E+01  0.1131E+03
  13.240  0.7388E+01  0.1132E+03
  13.250  0.7333E+01  0.1132E+03
  13.260  0.7277E+01  0.1133E+03
  13.270  0.7220E+01  0.1134E+03
  13.280  0.7160E+01  0.1135E+03
  13.290  0.7099E+01  0.1135E+03
  13.300  0.7036E+01  0.1136E+03
  13.310  0.6970E+01  0.1137E+03
  13.320  0.6902E+01  0.1137E+03
  13.330  0.6831E+01  0.1138E+03
  13.340  0.6758E+01  0.1139E+03
  13.350  0.6683E+01  0.1139E+03
  13.360  0.6604E+01  0.1140E+03
  13.370  0.6523E+01  0.1141E+03
  13.380  0.6439E+01  0.1141E+03
  13.390  0.6352E+01  0.1142E+03
  13.400  0.6262E+01  0.1143E+03
  13.410  0.6170E+01  0.1143E+03
  13.420  0.6075E+01  0.1144E+03
  13.430  0.5977E+01  0.1145E+03
  13.440  0.5877E+01  0.1145E+03
  13.450  0.5775E+01  0.1146E+03
  13.460  0.5671E+01  0.1146E+03
  13.470  0.5565E+01  0.1147E+03
  13.480  0.5458E+01  0.1147E+03
  13.490  0.5350E+01  0.1148E+03
  13.500  0.5241E+01  0.1148E+03
  13.510  0.5131E+01  0.1149E+03
  13.520  0.5022E+01  0.1149E+03
  13.530  0.4913E+01  0.1150E+03
  13.540  0.4805E+01  0.1150E+03
  13.550  0.4698E+01  0.1151E+03
  13.560  0.4592E+01  0.1151E+03
  13.570  0.4488E+01  0.1152E+03
  13.580  0.4387E+01  0.1152E+03
  13.590  0.4288E+01  0.1153E+03
  13.600  0.4192E+01  0.1153E+03
  13.610  0.4100E+01  0.1153E+03
  13.620  0.4011E+01  0.1154E+03
  13.630  0.3926E+01  0.1154E+03
  13.640  0.3845E+01  0.1155E+03
  13.650  0.3768E+01  0.1155E+03
  13.660  0.3696E+01  0.1155E+03
  13.670  0.3628E+01  0.1156E+03
  13.680  0.3565E+01  0.1156E+03
  13.690  0.3506E+01  0.1156E+03
  13.700  0.3453E+01  0.1157E+03
  13.710  0.3404E+01  0.1157E+03
  13.720  0.3359E+01  0.1157E+03
  13.730  0.3320E+01  0.1158E+03
  13.740  0.3285E+01  0.1158E+03
  13.750  0.3254E+01  0.1158E+03
  13.760  0.3228E+01  0.1159E+03
  13.770  0.3207E+01  0.1159E+03
  13.780  0.3189E+01  0.1159E+03
  13.790  0.3175E+01  0.1160E+03
  13.800  0.3165E+01  0.1160E+03
  13.810  0.3159E+01  0.1160E+03
  13.820  0.3156E+01  0.1161E+03
  13.830  0.3156E+01  0.1161E+03
  13.840  0.3160E+01  0.1161E+03
  13.850  0.3166E+01  0.1162E+03
  13.860  0.3175E+01  0.1162E+03
  13.870  0.3186E+01  0.1162E+03
  13.880  0.3200E+01  0.1163E+03
  13.890  0.3217E+01  0.1163E+03
  13.900  0.3235E+01  0.1163E+03
  13.910  0.3255E+01  0.1164E+03
  13.920  0.3277E+01  0.1164E+03
  13.930  0.3301E+01  0.1164E+03
  13.940  0.3326E+01  0.1165E+03
  13.950  0.3353E+01  0.1165E+03
  13.960  0.3381E+01  0.1165E+03
  13.970  0.3410E+01  0.1166E+03
  13.980  0.3441E+01  0.1166E+03
  13.990  0.3473E+01  0.1166E+03
  14.000  0.3505E+01  0.1167E+03
  14.010  0.3539E+01  0.1167E+03
  14.020  0.3574E+01  0.1167E+03
  14.030  0.3609E+01  0.1168E+03
  14.040  0.3646E+01  0.1168E+03
  14.050  0.3683E+01  0.1168E+03
  14.060  0.3721E+01  0.1169E+03
  14.070  0.3760E+01  0.1169E+03
  14.080  0.3800E+01  0.1170E+03
  14.090  0.3840E+01  0.1170E+03
  14.100  0.3881E+01  0.1170E+03
  14.110  0.3922E+01  0.1171E+03
  14.120  0.3964E+01  0.1171E+03
  14.130  0.4007E+01  0.1172E+03
  14.140  0.4050E+01  0.1172E+03
  14.150  0.4094E+01  0.1172E+03
  14.160  0.4138E+01  0.1173E+03
  14.170  0.4183E+01  0.1173E+03
  14.180  0.4228E+01  0.1174E+03
  14.190  0.4273E+01  0.1174E+03
  14.200  0.4318E+01  0.1174E+03
  14.210  0.4364E+01  0.1175E+03
  14.220  0.4410E+01  0.1175E+03
  14.230  0.4456E+01  0.1176E+03
  14.240  0.4502E+01  0.1176E+03
  14.250  0.4548E+01  0.1177E+03
  14.260  0.4595E+01  0.1177E+03
  14.270  0.4640E+01  0.1178E+03
  14.280  0.4686E+01  0.1178E+03
  14.290  0.4731E+01  0.1179E+03
  14.300  0.4776E+01  0.1179E+03
  14.310  0.4821E+01  0.1179E+03
  14.320  0.4865E+01  0.1180E+03
  14.330  0.4908E+01  0.1180E+03
  14.340  0.4951E+01  0.1181E+03
  14.350  0.4993E+01  0.1181E+03
  14.360  0.5034E+01  0.1182E+03
  14.370  0.5074E+01  0.1182E+03
  14.380  0.5114E+01  0.1183E+03
  14.390  0.5152E+01  0.1184E+03
  14.400  0.5190E+01  0.1184E+03
  14.410  0.5226E+01  0.1185E+03
  14.420  0.5262E+01  0.1185E+03
  14.430  0.5296E+01  0.1186E+03
  14.440  0.5330E+01  0.1186E+03
  14.450  0.5363E+01  0.1187E+03
  14.460  0.5394E+01  0.1187E+03
  14.470  0.5425E+01  0.1188E+03
  14.480  0.5455E+01  0.1188E+03
  14.490  0.5485E+01  0.1189E+03
  14.500  0.5513E+01  0.1189E+03
  14.510  0.5542E+01  0.1190E+03
  14.520  0.5570E+01  0.1191E+03
  14.530  0.5598E+01  0.1191E+03
  14.540  0.5625E+01  0.1192E+03
  14.550  0.5653E+01  0.1192E+03
  14.560  0.5681E+01  0.1193E+03
  14.570  0.5709E+01  0.1193E+03
  14.580  0.5738E+01  0.1194E+03
  14.590  0.5768E+01  0.1194E+03
  14.600  0.5798E+01  0.1195E+03
  14.610  0.5830E+01  0.1196E+03
  14.620  0.5863E+01  0.1196E+03
  14.630  0.5897E+01  0.1197E+03
  14.640  0.5933E+01  0.1197E+03
  14.650  0.5971E+01  0.1198E+03
  14.660  0.6010E+01  0.1199E+03
  14.670  0.6052E+01  0.1199E+03
  14.680  0.6096E+01  0.1200E+03
  14.690  0.6142E+01  0.1200E+03
  14.700  0.6191E+01  0.1201E+03
  14.710  0.6242E+01  0.1202E+03
  14.720  0.6297E+01  0.1202E+03
  14.730  0.6354E+01  0.1203E+03
  14.740  0.6414E+01  0.1204E+03
  14.750  0.6477E+01  0.1204E+03
  14.760  0.6543E+01  0.1205E+03
  14.770  0.6612E+01  0.1206E+03
  14.780  0.6685E+01  0.1206E+03
  14.790  0.6762E+01  0.1207E+03
  14.800  0.6842E+01  0.1208E+03
  14.810  0.6925E+01  0.1208E+03
  14.820  0.7013E+01  0.1209E+03
  14.830  0.7104E+01  0.1210E+03
  14.840  0.7199E+01  0.1210E+03
  14.850  0.7298E+01  0.1211E+03
  14.860  0.7402E+01  0.1212E+03
  14.870  0.7509E+01  0.1213E+03
  14.880  0.7621E+01  0.1213E+03
  14.890  0.7738E+01  0.1214E+03
  14.900  0.7859E+01  0.1215E+03
  14.910  0.7985E+01  0.1216E+03
  14.920  0.8116E+01  0.1217E+03
  14.930  0.8252E+01  0.1217E+03
  14.940  0.8393E+01  0.1218E+03
  14.950  0.8540E+01  0.1219E+03
  14.960  0.8692E+01  0.1220E+03
  14.970  0.8850E+01  0.1221E+03
  14.980  0.9013E+01  0.1222E+03
  14.990  0.9183E+01  0.1223E+03
  15.000  0.9358E+01  0.1224E+03
  15.010  0.9540E+01  0.1225E+03
  15.020  0.9728E+01  0.1226E+03
  15.030  0.9922E+01  0.1227E+03
  15.040  0.1012E+02  0.1228E+03
  15.050  0.1033E+02  0.1229E+03
  15.060  0.1054E+02  0.1230E+03
  15.070  0.1076E+02  0.1231E+03
  15.080  0.1099E+02  0.1232E+03
  15.090  0.1122E+02  0.1233E+03
  15.100  0.1146E+02  0.1234E+03
  15.110  0.1171E+02  0.1235E+03
  15.120  0.1196E+02  0.1236E+03
  15.130  0.1222E+02  0.1238E+03
  15.140  0.1248E+02  0.1239E+03
  15.150  0.1275E+02  0.1240E+03
  15.160  0.1302E+02  0.1241E+03
  15.170  0.1330E+02  0.1243E+03
  15.180  0.1358E+02  0.1244E+03
  15.190  0.1387E+02  0.1246E+03
  15.200  0.1416E+02  0.1247E+03
  15.210  0.1445E+02  0.1248E+03
  15.220  0.1474E+02  0.1250E+03
  15.230  0.1503E+02  0.1251E+03
  15.240  0.1533E+02  0.1253E+03
  15.250  0.1562E+02  0.1254E+03
  15.260  0.1591E+02  0.1256E+03
  15.270  0.1620E+02  0.1258E+03
  15.280  0.1649E+02  0.1259E+03
  15.290  0.1677E+02  0.1261E+03
  15.300  0.1705E+02  0.1263E+03
  15.310  0.1732E+02  0.1264E+03
  15.320  0.1758E+02  0.1266E+03
  15.330  0.1784E+02  0.1268E+03
  15.340  0.1809E+02  0.1270E+03
  15.350  0.1832E+02  0.1272E+03
  15.360  0.1855E+02  0.1273E+03
  15.370  0.1876E+02  0.1275E+03
  15.380  0.1896E+02  0.1277E+03
  15.390  0.1914E+02  0.1279E+03
  15.400  0.1931E+02  0.1281E+03
  15.410  0.1946E+02  0.1283E+03
  15.420  0.1959E+02  0.1285E+03
  15.430  0.1971E+02  0.1287E+03
  15.440  0.1980E+02  0.1289E+03
  15.450  0.1987E+02  0.1291E+03
  15.460  0.1992E+02  0.1293E+03
  15.470  0.1995E+02  0.1295E+03
  15.480  0.1995E+02  0.1297E+03
  15.490  0.1993E+02  0.1299E+03
  15.500  0.1989E+02  0.1301E+03
  15.510  0.1982E+02  0.1303E+03
  15.520  0.1973E+02  0.1305E+03
  15.530  0.1961E+02  0.1307E+03
  15.540  0.1946E+02  0.1309E+03
  15.550  0.1930E+02  0.1311E+03
  15.560  0.1910E+02  0.1313E+03
  15.570  0.1888E+02  0.1315E+03
  15.580  0.1864E+02  0.1316E+03
  15.590  0.1838E+02  0.1318E+03
  15.600  0.1809E+02  0.1320E+03
  15.610  0.1778E+02  0.1322E+03
  15.620  0.1746E+02  0.1324E+03
  15.630  0.1711E+02  0.1325E+03
  15.640  0.1674E+02  0.1327E+03
  15.650  0.1636E+02  0.1329E+03
  15.660  0.1597E+02  0.1330E+03
  15.670  0.1556E+02  0.1332E+03
  15.680  0.1514E+02  0.1333E+03
  15.690  0.1471E+02  0.1335E+03
  15.700  0.1427E+02  0.1336E+03
  15.710  0.1382E+02  0.1338E+03
  15.720  0.1337E+02  0.1339E+03
  15.730  0.1292E+02  0.1340E+03
  15.740  0.1247E+02  0.1341E+03
  15.750  0.1202E+02  0.1343E+03
  15.760  0.1157E+02  0.1344E+03
  15.770  0.1112E+02  0.1345E+03
  15.780  0.1068E+02  0.1346E+03
  15.790  0.1025E+02  0.1347E+03
  15.800  0.9827E+01  0.1348E+03
  15.810  0.9413E+01  0.1349E+03
  15.820  0.9011E+01  0.1350E+03
  15.830  0.8622E+01  0.1351E+03
  15.840  0.8245E+01  0.1351E+03
  15.850  0.7883E+01  0.1352E+03
  15.860  0.7537E+01  0.1353E+03
  15.870  0.7205E+01  0.1354E+03
  15.880  0.6890E+01  0.1354E+03
  15.890  0.6592E+01  0.1355E+03
  15.900  0.6311E+01  0.1356E+03
  15.910  0.6046E+01  0.1356E+03
  15.920  0.5799E+01  0.1357E+03
  15.930  0.5569E+01  0.1357E+03
  15.940  0.5356E+01  0.1358E+03
  15.950  0.5160E+01  0.1358E+03
  15.960  0.4980E+01  0.1359E+03
  15.970  0.4816E+01  0.1359E+03
  15.980  0.4667E+01  0.1360E+03
  15.990  0.4534E+01  0.1360E+03
  16.000  0.4416E+01  0.1361E+03
  16.010  0.4311E+01  0.1361E+03
  16.020  0.4220E+01  0.1362E+03
  16.030  0.4141E+01  0.1362E+03
  16.040  0.4075E+01  0.1363E+03
  16.050  0.4020E+01  0.1363E+03
  16.060  0.3976E+01  0.1363E+03
  16.070  0.3943E+01  0.1364E+03
  16.080  0.3919E+01  0.1364E+03
  16.090  0.3904E+01  0.1364E+03
  16.100  0.3897E+01  0.1365E+03
  16.110  0.3898E+01  0.1365E+03
  16.120  0.3907E+01  0.1366E+03
  16.130  0.3923E+01  0.1366E+03
  16.140  0.3945E+01  0.1366E+03
  16.150  0.3973E+01  0.1367E+03
  16.160  0.4007E+01  0.1367E+03
  16.170  0.4047E+01  0.1368E+03
  16.180  0.4091E+01  0.1368E+03
  16.190  0.4141E+01  0.1368E+03
  16.200  0.4195E+01  0.1369E+03
  16.210  0.4253E+01  0.1369E+03
  16.220  0.4316E+01  0.1370E+03
  16.230  0.4383E+01  0.1370E+03
  16.240  0.4454E+01  0.1371E+03
  16.250  0.4529E+01  0.1371E+03
  16.260  0.4608E+01  0.1372E+03
  16.270  0.4691E+01  0.1372E+03
  16.280  0.4778E+01  0.1372E+03
  16.290  0.4868E+01  0.1373E+03
  16.300  0.4963E+01  0.1373E+03
  16.310  0.5061E+01  0.1374E+03
  16.320  0.5163E+01  0.1374E+03
  16.330  0.5268E+01  0.1375E+03
  16.340  0.5377E+01  0.1376E+03
  16.350  0.5490E+01  0.1376E+03
  16.360  0.5606E+01  0.1377E+03
  16.370  0.5726E+01  0.1377E+03
  16.380  0.5849E+01  0.1378E+03
  16.390  0.5975E+01  0.1378E+03
  16.400  0.6104E+01  0.1379E+03
  16.410  0.6236E+01  0.1380E+03
  16.420  0.6371E+01  0.1380E+03
  16.430  0.6508E+01  0.1381E+03
  16.440  0.6647E+01  0.1382E+03
  16.450  0.6788E+01  0.1382E+03
  16.460  0.6931E+01  0.1383E+03
  16.470  0.7076E+01  0.1384E+03
  16.480  0.7222E+01  0.1384E+03
  16.490  0.7368E+01  0.1385E+03
  16.500  0.7515E+01  0.1386E+03
  16.510  0.7663E+01  0.1387E+03
  16.520  0.7810E+01  0.1387E+03
  16.530  0.7957E+01  0.1388E+03
  16.540  0.8104E+01  0.1389E+03
  16.550  0.8249E+01  0.1390E+03
  16.560  0.8394E+01  0.1391E+03
  16.570  0.8536E+01  0.1392E+03
  16.580  0.8678E+01  0.1392E+03
  16.590  0.8817E+01  0.1393E+03
  16.600  0.8954E+01  0.1394E+03
  16.610  0.9089E+01  0.1395E+03
  16.620  0.9221E+01  0.1396E+03
  16.630  0.9350E+01  0.1397E+03
  16.640  0.9477E+01  0.1398E+03
  16.650  0.9601E+01  0.1399E+03
  16.660  0.9721E+01  0.1400E+03
  16.670  0.9838E+01  0.1401E+03
  16.680  0.9952E+01  0.1402E+03
  16.690  0.1006E+02  0.1403E+03
  16.700  0.1017E+02  0.1404E+03
  16.710  0.1027E+02  0.1405E+03
  16.720  0.1037E+02  0.1406E+03
  16.730  0.1047E+02  0.1407E+03
  16.740  0.1056E+02  0.1408E+03
  16.750  0.1065E+02  0.1409E+03
  16.760  0.1074E+02  0.1410E+03
  16.770  0.1082E+02  0.1411E+03
  16.780  0.1090E+02  0.1412E+03
  16.790  0.1097E+02  0.1413E+03
  16.800  0.1104E+02  0.1415E+03
  16.810  0.1111E+02  0.1416E+03
  16.820  0.1117E+02  0.1417E+03
  16.830  0.1123E+02  0.1418E+03
  16.840  0.1128E+02  0.1419E+03
  16.850  0.1133E+02  0.1420E+03
  16.860  0.1137E+02  0.1421E+03
  16.870  0.1140E+02  0.1422E+03
  16.880  0.1144E+02  0.1424E+03
  16.890  0.1146E+02  0.1425E+03
  16.900  0.1148E+02  0.1426E+03
  16.910  0.1149E+02  0.1427E+03
  16.920  0.1150E+02  0.1428E+03
  16.930  0.1150E+02  0.1429E+03
  16.940  0.1149E+02  0.1430E+03
  16.950  0.1147E+02  0.1432E+03
  16.960  0.1145E+02  0.1433E+03
  16.970  0.1141E+02  0.1434E+03
  16.980  0.1137E+02  0.1435E+03
  16.990  0.1132E+02  0.1436E+03
  17.000  0.1126E+02  0.1437E+03
  17.010  0.1119E+02  0.1438E+03
  17.020  0.1111E+02  0.1440E+03
  17.030  0.1102E+02  0.1441E+03
  17.040  0.1091E+02  0.1442E+03
  17.050  0.1080E+02  0.1443E+03
  17.060  0.1068E+02  0.1444E+03
  17.070  0.1054E+02  0.1445E+03
  17.080  0.1040E+02  0.1446E+03
  17.090  0.1024E+02  0.1447E+03
  17.100  0.1008E+02  0.1448E+03
  17.110  0.9902E+01  0.1449E+03
  17.120  0.9716E+01  0.1450E+03
  17.130  0.9520E+01  0.1451E+03
  17.140  0.9315E+01  0.1452E+03
  17.150  0.9102E+01  0.1453E+03
  17.160  0.8880E+01  0.1454E+03
  17.170  0.8650E+01  0.1455E+03
  17.180  0.8414E+01  0.1455E+03
  17.190  0.8171E+01  0.1456E+03
  17.200  0.7922E+01  0.1457E+03
  17.210  0.7668E+01  0.1458E+03
  17.220  0.7410E+01  0.1458E+03
  17.230  0.7148E+01  0.1459E+03
  17.240  0.6884E+01  0.1460E+03
  17.250  0.6619E+01  0.1461E+03
  17.260  0.6352E+01  0.1461E+03
  17.270  0.6085E+01  0.1462E+03
  17.280  0.5819E+01  0.1462E+03
  17.290  0.5554E+01  0.1463E+03
  17.300  0.5291E+01  0.1463E+03
  17.310  0.5032E+01  0.1464E+03
  17.320  0.4776E+01  0.1464E+03
  17.330  0.4525E+01  0.1465E+03
  17.340  0.4278E+01  0.1465E+03
  17.350  0.4037E+01  0.1466E+03
  17.360  0.3803E+01  0.1466E+03
  17.370  0.3575E+01  0.1466E+03
  17.380  0.3354E+01  0.1467E+03
  17.390  0.3140E+01  0.1467E+03
  17.400  0.2934E+01  0.1467E+03
  17.410  0.2736E+01  0.1468E+03
  17.420  0.2546E+01  0.1468E+03
  17.430  0.2365E+01  0.1468E+03
  17.440  0.2192E+01  0.1468E+03
  17.450  0.2028E+01  0.1469E+03
  17.460  0.1872E+01  0.1469E+03
  17.470  0.1724E+01  0.1469E+03
  17.480  0.1585E+01  0.1469E+03
  17.490  0.1454E+01  0.1469E+03
  17.500  0.1331E+01  0.1469E+03
  17.510  0.1216E+01  0.1469E+03
  17.520  0.1109E+01  0.1470E+03
  17.530  0.1009E+01  0.1470E+03
  17.540  0.9156E+00  0.1470E+03
  17.550  0.8294E+00  0.1470E+03
  17.560  0.7498E+00  0.1470E+03
  17.570  0.6764E+00  0.1470E+03
  17.580  0.6089E+00  0.1470E+03
  17.590  0.5469E+00  0.1470E+03
  17.600  0.4902E+00  0.1470E+03
  17.610  0.4385E+00  0.1470E+03
  17.620  0.3914E+00  0.1470E+03
  17.630  0.3486E+00  0.1470E+03
  17.640  0.3098E+00  0.1470E+03
  17.650  0.2747E+00  0.1470E+03
  17.660  0.2431E+00  0.1470E+03
  17.670  0.2147E+00  0.1470E+03
  17.680  0.1892E+00  0.1470E+03
  17.690  0.1663E+00  0.1470E+03
  17.700  0.1459E+00  0.1470E+03
  17.710  0.1277E+00  0.1470E+03
  17.720  0.1116E+00  0.1470E+03
  17.730  0.9728E-01  0.1470E+03
  17.740  0.8461E-01  0.1470E+03
  17.750  0.7344E-01  0.1471E+03
  17.760  0.6360E-01  0.1471E+03
  17.770  0.5496E-01  0.1471E+03
  17.780  0.4739E-01  0.1471E+03
  17.790  0.4078E-01  0.1471E+03
  17.800  0.3501E-01  0.1471E+03
  17.810  0.2999E-01  0.1471E+03
  17.820  0.2564E-01  0.1471E+03
  17.830  0.2187E-01  0.1471E+03
  17.840  0.1861E-01  0.1471E+03
  17.850  0.1580E-01  0.1471E+03
  17.860  0.1339E-01  0.1471E+03
  17.870  0.1132E-01  0.1471E+03
  17.880  0.9551E-02  0.1471E+03
  17.890  0.8039E-02  0.1471E+03
  17.900  0.6752E-02  0.1471E+03
  17.910  0.5658E-02  0.1471E+03
  17.920  0.4731E-02  0.1471E+03
  17.930  0.3947E-02  0.1471E+03
  17.940  0.3286E-02  0.1471E+03
  17.950  0.2729E-02  0.1471E+03
  17.960  0.2261E-02  0.1471E+03
  17.970  0.1870E-02  0.1471E+03
  17.980  0.1542E-02  0.1471E+03
  17.990  0.1270E-02  0.1471E+03
  18.000  0.1043E-02  0.1471E+03
  18.010  0.8543E-03  0.1471E+03
  18.020  0.6984E-03  0.1471E+03
  18.030  0.5696E-03  0.1471E+03
  18.040  0.4636E-03  0.1471E+03
  18.050  0.3764E-03  0.1471E+03
  18.060  0.3049E-03  0.1471E+03
  18.070  0.2464E-03  0.1471E+03
  18.080  0.1987E-03  0.1471E+03
  18.090  0.1598E-03  0.1471E+03
  18.100  0.1283E-03  0.1471E+03
  18.110  0.1027E-03  0.1471E+03
  18.120  0.8204E-04  0.1471E+03
  18.130  0.6538E-04  0.1471E+03
  18.140  0.5198E-04  0.1471E+03
  18.150  0.4123E-04  0.1471E+03
  18.160  0.3263E-04  0.1471E+03
  18.170  0.2576E-04  0.1471E+03
  18.180  0.2029E-04  0.1471E+03
  18.190  0.1594E-04  0.1471E+03
  18.200  0.1249E-04  0.1471E+03
  18.210  0.9770E-05  0.1471E+03
  18.220  0.7621E-05  0.1471E+03
  18.230  0.5931E-05  0.1471E+03
  18.240  0.4604E-05  0.1471E+03
  18.250  0.3566E-05  0.1471E+03
  18.260  0.2755E-05  0.1471E+03
  18.270  0.2123E-05  0.1471E+03
  18.280  0.1632E-05  0.1471E+03
  18.290  0.1252E-05  0.1471E+03
  18.300  0.9578E-06  0.1471E+03
  18.310  0.7310E-06  0.1471E+03
  18.320  0.5565E-06  0.1471E+03
  18.330  0.4227E-06  0.1471E+03
  18.340  0.3202E-06  0.1471E+03
  18.350  0.2420E-06  0.1471E+03
  18.360  0.1824E-06  0.1471E+03
  18.370  0.1372E-06  0.1471E+03
  18.380  0.1029E-06  0.1471E+03
  18.390  0.7698E-07  0.1471E+03
  18.400  0.5745E-07  0.1471E+03
  18.410  0.4277E-07  0.1471E+03
  18.420  0.3176E-07  0.1471E+03
  18.430  0.2353E-07  0.1471E+03
  18.440  0.1738E-07  0.1471E+03
  18.450  0.1281E-07  0.1471E+03
  18.460  0.9419E-08  0.1471E+03
  18.470  0.6907E-08  0.1471E+03
  18.480  0.5052E-08  0.1471E+03
  18.490  0.3686E-08  0.1471E+03
  18.500  0.2682E-08  0.1471E+03
  18.510  0.1947E-08  0.1471E+03
  18.520  0.1410E-08  0.1471E+03
  18.530  0.1018E-08  0.1471E+03
  18.540  0.7334E-09  0.1471E+03
  18.550  0.5269E-09  0.1471E+03
  18.560  0.3776E-09  0.1471E+03
  18.570  0.2699E-09  0.1471E+03
  18.580  0.1925E-09  0.1471E+03
  18.590  0.1369E-09  0.1471E+03
  18.600  0.9708E-10  0.1471E+03
  18.610  0.6868E-10  0.1471E+03
  18.620  0.4847E-10  0.1471E+03
  18.630  0.3411E-10  0.1471E+03
  18.640  0.2395E-10  0.1471E+03
  18.650  0.1677E-10  0.1471E+03
  18.660  0.1171E-10  0.1471E+03
  18.670  0.8158E-11  0.1471E+03
  18.680  0.5668E-11  0.1471E+03
  18.690  0.3927E-11  0.1471E+03
  18.700  0.2714E-11  0.1471E+03
  18.710  0.1871E-11  0.1471E+03
  18.720  0.1287E-11  0.1471E+03
  18.730  0.8823E-12  0.1471E+03
  18.740  0.6035E-12  0.1471E+03
  18.750  0.4117E-12  0.1471E+03
  18.760  0.2801E-12  0.1471E+03
  18.770  0.1901E-12  0.1471E+03
  18.780  0.1287E-12  0.1471E+03
  18.790  0.8686E-13  0.1471E+03
  18.800  0.5848E-13  0.1471E+03
  18.810  0.3927E-13  0.1471E+03
  18.820  0.2630E-13  0.1471E+03
  18.830  0.1757E-13  0.1471E+03
  18.840  0.1171E-13  0.1471E+03
  18.850  0.7779E-14  0.1471E+03
  18.860  0.5156E-14  0.1471E+03
  18.870  0.3408E-14  0.1471E+03
  18.880  0.2247E-14  0.1471E+03
  18.890  0.1477E-14  0.1471E+03
  18.900  0.9688E-15  0.1471E+03
  18.910  0.6337E-15  0.1471E+03
  18.920  0.4134E-15  0.1471E+03
  18.930  0.2689E-15  0.1471E+03
  18.940  0.1745E-15  0.1471E+03
  18.950  0.1129E-15  0.1471E+03
  18.960  0.7290E-16  0.1471E+03
  18.970  0.4693E-16  0.1471E+03
  18.980  0.3013E-16  0.1471E+03
  18.990  0.1929E-16  0.1471E+03
  19.000  0.1232E-16  0.1471E+03
  19.010  0.7849E-17  0.1471E+03
  19.020  0.4986E-17  0.1471E+03
  19.030  0.3159E-17  0.1471E+03
  19.040  0.1996E-17  0.1471E+03
  19.050  0.1258E-17  0.1471E+03
  19.060  0.7909E-18  0.1471E+03
  19.070  0.4958E-18  0.1471E+03
  19.080  0.3100E-18  0.1471E+03
  19.090  0.1933E-18  0.1471E+03
  19.100  0.1202E-18  0.1471E+03
  19.110  0.7456E-19  0.1471E+03
  19.120  0.4612E-19  0.1471E+03
  19.130  0.2845E-19  0.1471E+03
  19.140  0.1751E-19  0.1471E+03
  19.150  0.1074E-19  0.1471E+03
  19.160  0.6576E-20  0.1471E+03
  19.170  0.4014E-20  0.1471E+03
  19.180  0.2444E-20  0.1471E+03
  19.190  0.1484E-20  0.1471E+03
  19.200  0.8984E-21  0.1471E+03
  19.210  0.5426E-21  0.1471E+03
  19.220  0.3268E-21  0.1471E+03
  19.230  0.1963E-21  0.1471E+03
  19.240  0.1176E-21  0.1471E+03
  19.250  0.7028E-22  0.1471E+03
  19.260  0.4188E-22  0.1471E+03
  19.270  0.2489E-22  0.1471E+03
  19.280  0.1475E-22  0.1471E+03
  19.290  0.8721E-23  0.1471E+03
  19.300  0.5142E-23  0.1471E+03
  19.310  0.3023E-23  0.1471E+03
  19.320  0.1773E-23  0.1471E+03
  19.330  0.1037E-23  0.1471E+03
  19.340  0.6048E-24  0.1471E+03
  19.350  0.3519E-24  0.1471E+03
  19.360  0.2041E-24  0.1471E+03
  19.370  0.1181E-24  0.1471E+03
  19.380  0.6817E-25  0.1471E+03
  19.390  0.3923E-25  0.1471E+03
  19.400  0.2252E-25  0.1471E+03
  19.410  0.1289E-25  0.1471E+03
  19.420  0.7360E-26  0.1471E+03
  19.430  0.4191E-26  0.1471E+03
  19.440  0.2380E-26  0.1471E+03
  19.450  0.1348E-26  0.1471E+03
  19.460  0.7614E-27  0.1471E+03
  19.470  0.4289E-27  0.1471E+03
  19.480  0.2410E-27  0.1471E+03
  19.490  0.1350E-27  0.1471E+03
  19.500  0.7546E-28  0.1471E+03
  19.510  0.4205E-28  0.1471E+03
  19.520  0.2337E-28  0.1471E+03
  19.530  0.1296E-28  0.1471E+03
  19.540  0.7164E-29  0.1471E+03
  19.550  0.3950E-29  0.1471E+03
  19.560  0.2172E-29  0.1471E+03
  19.570  0.1191E-29  0.1471E+03
  19.580  0.6515E-30  0.1471E+03
  19.590  0.3554E-30  0.1471E+03
  19.600  0.1933E-30  0.1471E+03
  19.610  0.1049E-30  0.1471E+03
  19.620  0.5676E-31  0.1471E+03
  19.630  0.3063E-31  0.1471E+03
  19.640  0.1649E-31  0.1471E+03
  19.650  0.8850E-32  0.1471E+03
  19.660  0.4738E-32  0.1471E+03
  19.670  0.2529E-32  0.1471E+03
  19.680  0.1347E-32  0.1471E+03
  19.690  0.7152E-33  0.1471E+03
  19.700  0.3788E-33  0.1471E+03
  19.710  0.2001E-33  0.1471E+03
  19.720  0.1054E-33  0.1471E+03
  19.730  0.5537E-34  0.1471E+03
  19.740  0.2901E-34  0.1471E+03
  19.750  0.1516E-34  0.1471E+03
  19.760  0.7900E-35  0.1471E+03
  19.770  0.4106E-35  0.1471E+03
  19.780  0.2128E-35  0.1471E+03
  19.790  0.1100E-35  0.1471E+03
  19.800  0.5672E-36  0.1471E+03
  19.810  0.2916E-36  0.1471E+03
  19.820  0.1496E-36  0.1471E+03
  19.830  0.7649E-37  0.1471E+03
  19.840  0.3901E-37  0.1471E+03
  19.850  0.1984E-37  0.1471E+03
  19.860  0.1007E-37  0.1471E+03
  19.870  0.5094E-38  0.1471E+03
  19.880  0.2570E-38  0.1471E+03
  19.890  0.1293E-38  0.1471E+03
  19.900  0.6492E-39  0.1471E+03
  19.910  0.3249E-39  0.1471E+03
  19.920  0.1622E-39  0.1471E+03
  19.930  0.8076E-40  0.1471E+03
  19.940  0.4010E-40  0.1471E+03
  19.950  0.1986E-40  0.1471E+03
  19.960  0.9806E-41  0.1471E+03
  19.970  0.4829E-41  0.1471E+03
  19.980  0.2372E-41  0.1471E+03
  19.990  0.1162E-41  0.1471E+03
  20.000  0.5678E-42  0.1471E+03
  20.010  0.2767E-42  0.1471E+03
  20.020  0.1344E-42  0.1471E+03
  20.030  0.6515E-43  0.1471E+03
  20.040  0.3149E-43  0.1471E+03
  20.050  0.1518E-43  0.1471E+03
  20.060  0.7298E-44  0.1471E+03
  20.070  0.3499E-44  0.1471E+03
  20.080  0.1673E-44  0.1471E+03
  20.090  0.7978E-45  0.1471E+03
  20.100  0.3794E-45  0.1471E+03
  20.110  0.1800E-45  0.1471E+03
  20.120  0.8513E-46  0.1471E+03
  20.130  0.4016E-46  0.1471E+03
  20.140  0.1890E-46  0.1471E+03
  20.150  0.8867E-47  0.1471E+03
  20.160  0.4150E-47  0.1471E+03
  20.170  0.1937E-47  0.1471E+03
  20.180  0.9014E-48  0.1471E+03
  20.190  0.4185E-48  0.1471E+03
  20.200  0.1937E-48  0.1471E+03
  20.210  0.8945E-49  0.1471E+03
  20.220  0.4119E-49  0.1471E+03
  20.230  0.1892E-49  0.1471E+03
  20.240  0.8663E-50  0.1471E+03
  20.250  0.3957E-50  0.1471E+03
  20.260  0.1803E-50  0.1471E+03
  20.270  0.8189E-51  0.1471E+03
  20.280  0.3711E-51  0.1471E+03
  20.290  0.1677E-51  0.1471E+03
  20.300  0.7556E-52  0.1471E+03
  20.310  0.3396E-52  0.1471E+03
  20.320  0.1522E-52  0.1471E+03
  20.330  0.6805E-53  0.1471E+03
  20.340  0.3034E-53  0.1471E+03
  20.350  0.1349E-53  0.1471E+03
  20.360  0.5982E-54  0.1471E+03
  20.370  0.2646E-54  0.1471E+03
  20.380  0.1167E-54  0.1471E+03
  20.390  0.5132E-55  0.1471E+03
  20.400  0.2252E-55  0.1471E+03
  20.410  0.9850E-56  0.1471E+03
  20.420  0.4298E-56  0.1471E+03
  20.430  0.1870E-56  0.1471E+03
  20.440  0.8117E-57  0.1471E+03
  20.450  0.3513E-57  0.1471E+03
  20.460  0.1516E-57  0.1471E+03
  20.470  0.6528E-58  0.1471E+03
  20.480  0.2803E-58  0.1471E+03
  20.490  0.1200E-58  0.1471E+03
  20.500  0.5124E-59  0.1471E+03
  20.510  0.2182E-59  0.1471E+03
  20.520  0.9269E-60  0.1471E+03
  20.530  0.3926E-60  0.1471E+03
  20.540  0.1659E-60  0.1471E+03
  20.550  0.6988E-61  0.1471E+03
  20.560  0.2936E-61  0.1471E+03
  20.570  0.1230E-61  0.1471E+03
  20.580  0.5142E-62  0.1471E+03
  20.590  0.2143E-62  0.1471E+03
  20.600  0.8908E-63  0.1471E+03
  20.610  0.3693E-63  0.1471E+03
  20.620  0.1527E-63  0.1471E+03
  20.630  0.6295E-64  0.1471E+03
  20.640  0.2589E-64  0.1471E+03
  20.650  0.1062E-64  0.1471E+03
  20.660  0.4342E-65  0.1471E+03
  20.670  0.1771E-65  0.1471E+03
  20.680  0.7205E-66  0.1471E+03
  20.690  0.2923E-66  0.1471E+03
  20.700  0.1183E-66  0.1471E+03
  20.710  0.4773E-67  0.1471E+03
  20.720  0.1921E-67  0.1471E+03
  20.730  0.7710E-68  0.1471E+03
  20.740  0.3086E-68  0.1471E+03
  20.750  0.1232E-68  0.1471E+03
  20.760  0.4905E-69  0.1471E+03
  20.770  0.1947E-69  0.1471E+03
  20.780  0.7711E-70  0.1471E+03
  20.790  0.3045E-70  0.1471E+03
  20.800  0.1199E-70  0.1471E+03
  20.810  0.4711E-71  0.1471E+03
  20.820  0.1846E-71  0.1471E+03
  20.830  0.7211E-72  0.1471E+03
  20.840  0.2810E-72  0.1471E+03
  20.850  0.1092E-72  0.1471E+03
  20.860  0.4231E-73  0.1471E+03
  20.870  0.1635E-73  0.1471E+03
  20.880  0.6303E-74  0.1471E+03
  20.890  0.2423E-74  0.1471E+03
  20.900  0.9289E-75  0.1471E+03
  20.910  0.3552E-75  0.1471E+03
  20.920  0.1354E-75  0.1471E+03
  20.930  0.5151E-76  0.1471E+03
  20.940  0.1953E-76  0.1471E+03
  20.950  0.7389E-77  0.1471E+03
  20.960  0.2787E-77  0.1471E+03
  20.970  0.1049E-77  0.1471E+03
  20.980  0.3934E-78  0.1471E+03
  20.990  0.1472E-78  0.1471E+03
  21.000  0.5494E-79  0.1471E+03
  21.010  0.2045E-79  0.1471E+03
  21.020  0.7591E-80  0.1471E+03
  21.030  0.2810E-80  0.1471E+03
  21.040  0.1038E-80  0.1471E+03
  21.050  0.3827E-81  0.1471E+03
  21.060  0.1411E-81  0.1471E+03
  21.070  0.5219E-82  0.1471E+03
  21.080  0.1959E-82  0.1471E+03
  21.090  0.7669E-83  0.1471E+03
  21.100  0.3319E-83  0.1471E+03
  21.110  0.1736E-83  0.1471E+03
  21.120  0.1162E-83  0.1471E+03
  21.130  0.9545E-84  0.1471E+03
  21.140  0.8796E-84  0.1471E+03
  21.150  0.8526E-84  0.1471E+03
  21.160  0.8430E-84  0.1471E+03
  21.170  0.8395E-84  0.1471E+03
  21.180  0.8383E-84  0.1471E+03
  21.190  0.8379E-84  0.1471E+03
  21.200  0.8378E-84  0.1471E+03
  21.210  0.8378E-84  0.1471E+03
  21.220  0.8378E-84  0.1471E+03
  21.230  0.8378E-84  0.1471E+03
  21.240  0.8378E-84  0.1471E+03
  21.250  0.8378E-84  0.1471E+03
  21.260  0.8378E-84  0.1471E+03
  21.270  0.8378E-84  0.1471E+03
  21.280  0.8378E-84  0.1471E+03
  21.290  0.8378E-84  0.1471E+03
  21.300  0.8378E-84  0.1471E+03
  21.310  0.8378E-84  0.1471E+03
  21.320  0.8378E-84  0.1471E+03
  21.330  0.8378E-84  0.1471E+03
  21.340  0.8378E-84  0.1471E+03
  21.350  0.8378E-84  0.1471E+03
  21.360  0.8378E-84  0.1471E+03
  21.370  0.8378E-84  0.1471E+03
  21.380  0.8378E-84  0.1471E+03
  21.390  0.8378E-84  0.1471E+03
  21.400  0.8378E-84  0.1471E+03
  21.410  0.8378E-84  0.1471E+03
  21.420  0.8378E-84  0.1471E+03
  21.430  0.8378E-84  0.1471E+03
  21.440  0.8378E-84  0.1471E+03
  21.450  0.8378E-84  0.1471E+03
  21.460  0.8378E-84  0.1471E+03
  21.470  0.8378E-84  0.1471E+03
  21.480  0.8378E-84  0.1471E+03
  21.490  0.8378E-84  0.1471E+03
  21.500  0.8378E-84  0.1471E+03
  21.510  0.8378E-84  0.1471E+03
  21.520  0.8378E-84  0.1471E+03
  21.530  0.8378E-84  0.1471E+03
  21.540  0.8378E-84  0.1471E+03
  21.550  0.8378E-84  0.1471E+03
  21.560  0.8378E-84  0.1471E+03
  21.570  0.8378E-84  0.1471E+03
  21.580  0.8378E-84  0.1471E+03
  21.590  0.8378E-84  0.1471E+03
  21.600  0.8378E-84  0.1471E+03
  21.610  0.8378E-84  0.1471E+03
  21.620  0.8378E-84  0.1471E+03
  21.630  0.8378E-84  0.1471E+03
  21.640  0.8378E-84  0.1471E+03
  21.650  0.8378E-84  0.1471E+03
  21.660  0.8378E-84  0.1471E+03
  21.670  0.8378E-84  0.1471E+03
  21.680  0.8378E-84  0.1471E+03
  21.690  0.8378E-84  0.1471E+03
  21.700  0.8378E-84  0.1471E+03
  21.710  0.8378E-84  0.1471E+03
  21.720  0.8378E-84  0.1471E+03
  21.730  0.8378E-84  0.1471E+03
  21.740  0.8378E-84  0.1471E+03
  21.750  0.8378E-84  0.1471E+03
  21.760  0.8378E-84  0.1471E+03
  21.770  0.8378E-84  0.1471E+03
  21.780  0.8378E-84  0.1471E+03
  21.790  0.8378E-84  0.1471E+03
  21.800  0.8378E-84  0.1471E+03
  21.810  0.8378E-84  0.1471E+03
  21.820  0.8378E-84  0.1471E+03
  21.830  0.8378E-84  0.1471E+03
  21.840  0.8378E-84  0.1471E+03
  21.850  0.8378E-84  0.1471E+03
  21.860  0.8378E-84  0.1471E+03
  21.870  0.8378E-84  0.1471E+03
  21.880  0.8378E-84  0.1471E+03
  21.890  0.8378E-84  0.1471E+03
  21.900  0.8378E-84  0.1471E+03
  21.910  0.8378E-84  0.1471E+03
  21.920  0.8378E-84  0.1471E+03
  21.930  0.8378E-84  0.1471E+03
  21.940  0.8378E-84  0.1471E+03
  21.950  0.8378E-84  0.1471E+03
  21.960  0.8378E-84  0.1471E+03
  21.970  0.8378E-84  0.1471E+03
  21.980  0.8378E-84  0.1471E+03
  21.990  0.8378E-84  0.1471E+03
  22.000  0.8378E-84  0.1471E+03
  22.010  0.8378E-84  0.1471E+03
  22.020  0.8378E-84  0.1471E+03
  22.030  0.8378E-84  0.1471E+03
  22.040  0.8378E-84  0.1471E+03
  22.050  0.8378E-84  0.1471E+03
  22.060  0.8378E-84  0.1471E+03
  22.070  0.8378E-84  0.1471E+03
  22.080  0.8378E-84  0.1471E+03
  22.090  0.8378E-84  0.1471E+03
  22.100  0.8378E-84  0.1471E+03
  22.110  0.8378E-84  0.1471E+03
  22.120  0.8378E-84  0.1471E+03
  22.130  0.8378E-84  0.1471E+03
  22.140  0.8378E-84  0.1471E+03
  22.150  0.8378E-84  0.1471E+03
  22.160  0.8378E-84  0.1471E+03
  22.170  0.8378E-84  0.1471E+03
  22.180  0.8378E-84  0.1471E+03
  22.190  0.8378E-84  0.1471E+03
  22.200  0.8378E-84  0.1471E+03
  22.210  0.8378E-84  0.1471E+03
  22.220  0.8378E-84  0.1471E+03
  22.230  0.8378E-84  0.1471E+03
  22.240  0.8378E-84  0.1471E+03
  22.250  0.8378E-84  0.1471E+03
  22.260  0.8378E-84  0.1471E+03
  22.270  0.8378E-84  0.1471E+03
  22.280  0.8378E-84  0.1471E+03
  22.290  0.8378E-84  0.1471E+03
  22.300  0.8378E-84  0.1471E+03
  22.310  0.8378E-84  0.1471E+03
  22.320  0.8378E-84  0.1471E+03
  22.330  0.8378E-84  0.1471E+03
  22.340  0.8378E-84  0.1471E+03
  22.350  0.8378E-84  0.1471E+03
  22.360  0.8378E-84  0.1471E+03
  22.370  0.8378E-84  0.1471E+03
  22.380  0.8378E-84  0.1471E+03
  22.390  0.8378E-84  0.1471E+03
  22.400  0.8378E-84  0.1471E+03
  22.410  0.8378E-84  0.1471E+03
  22.420  0.8378E-84  0.1471E+03
  22.430  0.8378E-84  0.1471E+03
  22.440  0.8378E-84  0.1471E+03
  22.450  0.8378E-84  0.1471E+03
  22.460  0.8378E-84  0.1471E+03
  22.470  0.8378E-84  0.1471E+03
  22.480  0.8378E-84  0.1471E+03
  22.490  0.8378E-84  0.1471E+03
  22.500  0.8378E-84  0.1471E+03
  22.510  0.8378E-84  0.1471E+03
  22.520  0.8378E-84  0.1471E+03
  22.530  0.8378E-84  0.1471E+03
  22.540  0.8378E-84  0.1471E+03
  22.550  0.8378E-84  0.1471E+03
  22.560  0.8378E-84  0.1471E+03
  22.570  0.8378E-84  0.1471E+03
  22.580  0.8378E-84  0.1471E+03
  22.590  0.8378E-84  0.1471E+03
  22.600  0.8378E-84  0.1471E+03
  22.610  0.8378E-84  0.1471E+03
  22.620  0.8378E-84  0.1471E+03
  22.630  0.8378E-84  0.1471E+03
  22.640  0.8378E-84  0.1471E+03
  22.650  0.8378E-84  0.1471E+03
  22.660  0.8378E-84  0.1471E+03
  22.670  0.8378E-84  0.1471E+03
  22.680  0.8378E-84  0.1471E+03
  22.690  0.8378E-84  0.1471E+03
  22.700  0.8378E-84  0.1471E+03
  22.710  0.8378E-84  0.1471E+03
  22.720  0.8378E-84  0.1471E+03
  22.730  0.8378E-84  0.1471E+03
  22.740  0.8378E-84  0.1471E+03
  22.750  0.8378E-84  0.1471E+03
  22.760  0.8378E-84  0.1471E+03
  22.770  0.8378E-84  0.1471E+03
  22.780  0.8378E-84  0.1471E+03
  22.790  0.8378E-84  0.1471E+03
  22.800  0.8378E-84  0.1471E+03
  22.810  0.8378E-84  0.1471E+03
  22.820  0.8378E-84  0.1471E+03
  22.830  0.8378E-84  0.1471E+03
  22.840  0.8378E-84  0.1471E+03
  22.850  0.8378E-84  0.1471E+03
  22.860  0.8378E-84  0.1471E+03
  22.870  0.8378E-84  0.1471E+03
  22.880  0.8378E-84  0.1471E+03
  22.890  0.8378E-84  0.1471E+03
  22.900  0.8378E-84  0.1471E+03
  22.910  0.8378E-84  0.1471E+03
  22.920  0.8378E-84  0.1471E+03
  22.930  0.8378E-84  0.1471E+03
  22.940  0.8378E-84  0.1471E+03
  22.950  0.8378E-84  0.1471E+03
  22.960  0.8378E-84  0.1471E+03
  22.970  0.8378E-84  0.1471E+03
  22.980  0.8378E-84  0.1471E+03
  22.990  0.8378E-84  0.1471E+03
  23.000  0.8378E-84  0.1471E+03
  23.010  0.8378E-84  0.1471E+03
  23.020  0.8378E-84  0.1471E+03
  23.030  0.8378E-84  0.1471E+03
  23.040  0.8378E-84  0.1471E+03
  23.050  0.8378E-84  0.1471E+03
  23.060  0.8378E-84  0.1471E+03
  23.070  0.8378E-84  0.1471E+03
  23.080  0.8378E-84  0.1471E+03
  23.090  0.8378E-84  0.1471E+03
  23.100  0.8378E-84  0.1471E+03
  23.110  0.8378E-84  0.1471E+03
  23.120  0.8378E-84  0.1471E+03
  23.130  0.8378E-84  0.1471E+03
  23.140  0.8378E-84  0.1471E+03
  23.150  0.8378E-84  0.1471E+03
  23.160  0.8378E-84  0.1471E+03
  23.170  0.8378E-84  0.1471E+03
  23.180  0.8378E-84  0.1471E+03
  23.190  0.8378E-84  0.1471E+03
  23.200  0.8378E-84  0.1471E+03
  23.210  0.8378E-84  0.1471E+03
  23.220  0.8378E-84  0.1471E+03
  23.230  0.8378E-84  0.1471E+03
  23.240  0.8378E-84  0.1471E+03
  23.250  0.8378E-84  0.1471E+03
  23.260  0.8378E-84  0.1471E+03
  23.270  0.8378E-84  0.1471E+03
  23.280  0.8378E-84  0.1471E+03
  23.290  0.8378E-84  0.1471E+03
  23.300  0.8378E-84  0.1471E+03
  23.310  0.8378E-84  0.1471E+03
  23.320  0.8378E-84  0.1471E+03
  23.330  0.8378E-84  0.1471E+03
  23.340  0.8378E-84  0.1471E+03
  23.350  0.8378E-84  0.1471E+03
  23.360  0.8378E-84  0.1471E+03
  23.370  0.8378E-84  0.1471E+03
  23.380  0.8378E-84  0.1471E+03
  23.390  0.8378E-84  0.1471E+03
  23.400  0.8378E-84  0.1471E+03
  23.410  0.8378E-84  0.1471E+03
  23.420  0.8378E-84  0.1471E+03
  23.430  0.8378E-84  0.1471E+03
  23.440  0.8378E-84  0.1471E+03
  23.450  0.8378E-84  0.1471E+03
  23.460  0.8378E-84  0.1471E+03
  23.470  0.8378E-84  0.1471E+03
  23.480  0.8378E-84  0.1471E+03
  23.490  0.8378E-84  0.1471E+03
  23.500  0.8378E-84  0.1471E+03
  23.510  0.8378E-84  0.1471E+03
  23.520  0.8378E-84  0.1471E+03
  23.530  0.8378E-84  0.1471E+03
  23.540  0.8378E-84  0.1471E+03
  23.550  0.8378E-84  0.1471E+03
  23.560  0.8378E-84  0.1471E+03
  23.570  0.8378E-84  0.1471E+03
  23.580  0.8378E-84  0.1471E+03
  23.590  0.8378E-84  0.1471E+03
  23.600  0.8378E-84  0.1471E+03
  23.610  0.8378E-84  0.1471E+03
  23.620  0.8378E-84  0.1471E+03
  23.630  0.8378E-84  0.1471E+03
  23.640  0.8378E-84  0.1471E+03
  23.650  0.8378E-84  0.1471E+03
  23.660  0.8378E-84  0.1471E+03
  23.670  0.8378E-84  0.1471E+03
  23.680  0.8378E-84  0.1471E+03
  23.690  0.8378E-84  0.1471E+03
  23.700  0.8378E-84  0.1471E+03
  23.710  0.8378E-84  0.1471E+03
  23.720  0.8378E-84  0.1471E+03
  23.730  0.8378E-84  0.1471E+03
  23.740  0.8378E-84  0.1471E+03
  23.750  0.8378E-84  0.1471E+03
  23.760  0.8378E-84  0.1471E+03
  23.770  0.8378E-84  0.1471E+03
  23.780  0.8378E-84  0.1471E+03
  23.790  0.8378E-84  0.1471E+03
  23.800  0.8378E-84  0.1471E+03
  23.810  0.8378E-84  0.1471E+03
  23.820  0.8378E-84  0.1471E+03
  23.830  0.8378E-84  0.1471E+03
  23.840  0.8378E-84  0.1471E+03
  23.850  0.8378E-84  0.1471E+03
  23.860  0.8378E-84  0.1471E+03
  23.870  0.8378E-84  0.1471E+03
  23.880  0.8378E-84  0.1471E+03
  23.890  0.8378E-84  0.1471E+03
  23.900  0.8378E-84  0.1471E+03
  23.910  0.8378E-84  0.1471E+03
  23.920  0.8378E-84  0.1471E+03
  23.930  0.8378E-84  0.1471E+03
  23.940  0.8378E-84  0.1471E+03
  23.950  0.8378E-84  0.1471E+03
  23.960  0.8378E-84  0.1471E+03
  23.970  0.8378E-84  0.1471E+03
  23.980  0.8378E-84  0.1471E+03
  23.990  0.8378E-84  0.1471E+03
  24.000  0.8378E-84  0.1471E+03
  24.010  0.8378E-84  0.1471E+03
  24.020  0.8378E-84  0.1471E+03
  24.030  0.8378E-84  0.1471E+03
  24.040  0.8378E-84  0.1471E+03
  24.050  0.8378E-84  0.1471E+03
  24.060  0.8378E-84  0.1471E+03
  24.070  0.8378E-84  0.1471E+03
  24.080  0.8378E-84  0.1471E+03
  24.090  0.8378E-84  0.1471E+03
  24.100  0.8378E-84  0.1471E+03
  24.110  0.8378E-84  0.1471E+03
  24.120  0.8378E-84  0.1471E+03
  24.130  0.8378E-84  0.1471E+03
  24.140  0.8378E-84  0.1471E+03
  24.150  0.8378E-84  0.1471E+03
  24.160  0.8378E-84  0.1471E+03
  24.170  0.8378E-84  0.1471E+03
  24.180  0.8378E-84  0.1471E+03
  24.190  0.8378E-84  0.1471E+03
  24.200  0.8378E-84  0.1471E+03
  24.210  0.8378E-84  0.1471E+03
  24.220  0.8378E-84  0.1471E+03
  24.230  0.8378E-84  0.1471E+03
  24.240  0.8378E-84  0.1471E+03
  24.250  0.8378E-84  0.1471E+03
  24.260  0.8378E-84  0.1471E+03
  24.270  0.8378E-84  0.1471E+03
  24.280  0.8378E-84  0.1471E+03
  24.290  0.8378E-84  0.1471E+03
  24.300  0.8378E-84  0.1471E+03
  24.310  0.8378E-84  0.1471E+03
  24.320  0.8378E-84  0.1471E+03
  24.330  0.8378E-84  0.1471E+03
  24.340  0.8378E-84  0.1471E+03
  24.350  0.8378E-84  0.1471E+03
  24.360  0.8378E-84  0.1471E+03
  24.370  0.8378E-84  0.1471E+03
  24.380  0.8378E-84  0.1471E+03
  24.390  0.8378E-84  0.1471E+03
  24.400  0.8378E-84  0.1471E+03
  24.410  0.8378E-84  0.1471E+03
  24.420  0.8378E-84  0.1471E+03
  24.430  0.8378E-84  0.1471E+03
  24.440  0.8378E-84  0.1471E+03
  24.450  0.8378E-84  0.1471E+03
  24.460  0.8378E-84  0.1471E+03
  24.470  0.8378E-84  0.1471E+03
  24.480  0.8378E-84  0.1471E+03
  24.490  0.8378E-84  0.1471E+03
  24.500  0.8378E-84  0.1471E+03
  24.510  0.8378E-84  0.1471E+03
  24.520  0.8378E-84  0.1471E+03
  24.530  0.8378E-84  0.1471E+03
  24.540  0.8378E-84  0.1471E+03
  24.550  0.8378E-84  0.1471E+03
  24.560  0.8378E-84  0.1471E+03
  24.570  0.8378E-84  0.1471E+03
  24.580  0.8378E-84  0.1471E+03
  24.590  0.8378E-84  0.1471E+03
  24.600  0.8378E-84  0.1471E+03
  24.610  0.8378E-84  0.1471E+03
  24.620  0.8378E-84  0.1471E+03
  24.630  0.8378E-84  0.1471E+03
  24.640  0.8378E-84  0.1471E+03
  24.650  0.8378E-84  0.1471E+03
  24.660  0.8378E-84  0.1471E+03
  24.670  0.8378E-84  0.1471E+03
  24.680  0.8378E-84  0.1471E+03
  24.690  0.8378E-84  0.1471E+03
  24.700  0.8378E-84  0.1471E+03
  24.710  0.8378E-84  0.1471E+03
  24.720  0.8378E-84  0.1471E+03
  24.730  0.8378E-84  0.1471E+03
  24.740  0.8378E-84  0.1471E+03
  24.750  0.8378E-84  0.1471E+03
  24.760  0.8378E-84  0.1471E+03
  24.770  0.8378E-84  0.1471E+03
  24.780  0.8378E-84  0.1471E+03
  24.790  0.8378E-84  0.1471E+03
  24.800  0.8378E-84  0.1471E+03
  24.810  0.8378E-84  0.1471E+03
  24.820  0.8378E-84  0.1471E+03
  24.830  0.8378E-84  0.1471E+03
  24.840  0.8378E-84  0.1471E+03
  24.850  0.8378E-84  0.1471E+03
  24.860  0.8378E-84  0.1471E+03
  24.870  0.8378E-84  0.1471E+03
  24.880  0.8378E-84  0.1471E+03
  24.890  0.8378E-84  0.1471E+03
  24.900  0.8378E-84  0.1471E+03
  24.910  0.8378E-84  0.1471E+03
  24.920  0.8378E-84  0.1471E+03
  24.930  0.8378E-84  0.1471E+03
  24.940  0.8378E-84  0.1471E+03
  24.950  0.8378E-84  0.1471E+03
  24.960  0.8378E-84  0.1471E+03
  24.970  0.8378E-84  0.1471E+03
  24.980  0.8378E-84  0.1471E+03
  24.990  0.8378E-84  0.1471E+03
  25.000  0.8378E-84  0.1471E+03
